Timestamp,F3 Value,F3 Quality,FC5 Value,FC5 Quality,F7 Value,F7 Quality,T7 Value,T7 Quality,P7 Value,P7 Quality,O1 Value,O1 Quality,O2 Value,O2 Quality,P8 Value,P8 Quality,T8 Value,T8 Quality,F8 Value,F8 Quality,AF4 Value,AF4 Quality,FC6 Value,FC6 Quality,F4 Value,F4 Quality,AF3 Value,AF3 Quality,X Value,Y Value,Z Value
2017-06-18 00:24:45.293558,4188.70967742,0,4205.80645161,0,4210.32258065,0,4166.4516129,0,4161.93548387,0,4171.93548387,0,4181.61290323,0,4162.25806452,0,4162.58064516,0,4198.70967742,0,4199.67741935,0,4179.35483871,0,4172.58064516,0,4222.25806452,0,0,0,?
2017-06-18 00:24:45.298459,4159.03225806,0,4174.83870968,0,4172.25806452,0,4210.64516129,0,4206.12903226,0,4164.19354839,0,4159.03225806,0,4168.70967742,0,4192.90322581,0,4173.87096774,0,4171.29032258,0,4163.87096774,0,4159.35483871,0,4196.4516129,0,0,0,?
2017-06-18 00:24:45.309477,4157.74193548,0,4182.25806452,0,4169.03225806,0,4164.83870968,0,4209.67741935,0,4210.64516129,0,4162.58064516,0,4185.80645161,0,4177.41935484,0,4180.32258065,0,4178.06451613,0,4163.87096774,0,4158.70967742,0,4210.0,0,0,0,?
2017-06-18 00:24:45.314475,4190.64516129,0,4163.22580645,0,4199.67741935,0,4197.41935484,0,4211.29032258,0,4164.83870968,0,4192.58064516,0,4174.51612903,0,4216.4516129,0,4206.12903226,0,4210.64516129,0,4187.74193548,0,4172.25806452,0,4239.67741935,0,0,0,?
2017-06-18 00:24:45.325468,4202.90322581,0,4163.22580645,0,4208.38709677,0,4190.0,0,4204.19354839,0,4198.38709677,0,4180.32258065,0,4202.58064516,0,4197.41935484,0,4193.5483871,0,4191.93548387,0,4195.16129032,0,4174.51612903,0,4238.70967742,0,0,0,?
2017-06-18 00:24:45.330568,4180.96774194,0,4198.38709677,0,4200.64516129,0,4162.25806452,0,4199.35483871,0,4177.41935484,0,4157.41935484,0,4176.12903226,0,4177.09677419,0,4181.29032258,0,4162.58064516,0,4173.22580645,0,4155.80645161,0,4220.64516129,0,0,0,?
2017-06-18 00:24:45.341518,4183.87096774,0,4207.09677419,0,4207.74193548,0,4177.41935484,0,4206.12903226,0,4190.64516129,0,4179.67741935,0,4194.51612903,0,4185.16129032,0,4195.80645161,0,4188.70967742,0,4164.51612903,0,4165.48387097,0,4226.12903226,0,0,0,?
2017-06-18 00:24:45.345456,4196.12903226,0,4165.48387097,0,4168.70967742,0,4173.87096774,0,4163.5483871,0,4167.41935484,0,4202.58064516,0,4167.09677419,0,4194.83870968,0,4203.5483871,0,4207.09677419,0,4187.41935484,0,4179.03225806,0,4237.74193548,0,0,0,?
2017-06-18 00:24:45.356449,4178.38709677,0,4207.09677419,0,4209.67741935,0,4206.77419355,0,4209.03225806,0,4205.48387097,0,4189.67741935,0,4210.0,0,4185.16129032,0,4202.58064516,0,4181.29032258,0,4197.74193548,0,4172.90322581,0,4230.0,0,0,0,?
2017-06-18 00:24:45.361443,4159.03225806,0,4200.32258065,0,4186.12903226,0,4170.64516129,0,4197.74193548,0,4174.83870968,0,4170.64516129,0,4185.80645161,0,4207.41935484,0,4192.25806452,0,4159.35483871,0,4179.67741935,0,4157.74193548,0,4209.35483871,0,0,0,?
2017-06-18 00:24:45.372453,4163.87096774,0,4196.77419355,0,4178.38709677,0,4178.38709677,0,4203.5483871,0,4182.90322581,0,4164.19354839,0,4168.06451613,0,4189.35483871,0,4163.87096774,0,4159.03225806,0,4160.32258065,0,4145.48387097,0,4191.29032258,0,0,0,?
2017-06-18 00:24:45.377538,4186.12903226,0,4199.03225806,0,4198.70967742,0,4204.51612903,0,4164.83870968,0,4201.93548387,0,4165.80645161,0,4172.58064516,0,4205.16129032,0,4161.93548387,0,4167.09677419,0,4161.29032258,0,4170.0,0,4203.87096774,0,0,0,?
2017-06-18 00:24:45.388476,4181.29032258,0,4205.80645161,0,4208.06451613,0,4162.25806452,0,4204.19354839,0,4206.77419355,0,4174.51612903,0,4180.0,0,4179.67741935,0,4189.03225806,0,4172.90322581,0,4175.16129032,0,4176.12903226,0,4218.70967742,0,0,0,?
2017-06-18 00:24:45.393452,4152.90322581,0,4199.03225806,0,4183.22580645,0,4130.32258065,0,4191.61290323,0,4161.93548387,0,4185.80645161,0,4179.67741935,0,4177.41935484,0,4198.70967742,0,4168.70967742,0,4180.32258065,0,4156.77419355,0,4207.74193548,0,0,0,?
2017-06-18 00:24:45.404542,4164.19354839,0,4193.22580645,0,4175.80645161,0,4183.22580645,0,4188.70967742,0,4195.48387097,0,4202.58064516,0,4197.41935484,0,4177.74193548,0,4198.38709677,0,4169.03225806,0,4184.83870968,0,4172.58064516,0,4208.70967742,0,0,0,?
2017-06-18 00:24:45.408501,4200.0,0,4205.16129032,0,4201.93548387,0,4161.61290323,0,4179.35483871,0,4175.80645161,0,4165.48387097,0,4164.83870968,0,4190.32258065,0,4205.48387097,0,4191.29032258,0,4200.0,0,4193.22580645,0,4239.67741935,0,0,0,?
2017-06-18 00:24:45.419471,4165.80645161,0,4164.19354839,0,4170.0,0,4148.06451613,0,4168.06451613,0,4195.16129032,0,4211.29032258,0,4206.12903226,0,4194.19354839,0,4163.87096774,0,4167.74193548,0,4162.25806452,0,4207.41935484,0,4206.12903226,0,0,0,?
2017-06-18 00:24:45.424466,4205.48387097,0,4201.29032258,0,4204.51612903,0,4178.06451613,0,4174.83870968,0,4208.38709677,0,4207.74193548,0,4202.90322581,0,4190.32258065,0,4168.06451613,0,4171.61290323,0,4164.19354839,0,4203.87096774,0,4241.61290323,0,0,0,?
2017-06-18 00:24:45.435459,4192.25806452,0,4186.4516129,0,4175.48387097,0,4186.77419355,0,4193.5483871,0,4193.5483871,0,4197.41935484,0,4209.03225806,0,4187.74193548,0,4209.67741935,0,4204.51612903,0,4207.41935484,0,4179.03225806,0,4231.29032258,0,0,0,?
2017-06-18 00:24:45.440517,4190.0,0,4174.83870968,0,4163.5483871,0,4200.0,0,4204.51612903,0,4203.22580645,0,4173.87096774,0,4190.64516129,0,4181.93548387,0,4185.16129032,0,4180.96774194,0,4182.90322581,0,4169.67741935,0,4229.03225806,0,0,0,?
2017-06-18 00:24:45.451470,4181.29032258,0,4170.0,0,4172.58064516,0,4150.0,0,4204.83870968,0,4171.93548387,0,4172.58064516,0,4177.74193548,0,4210.96774194,0,4167.09677419,0,4160.32258065,0,4163.5483871,0,4161.29032258,0,4226.12903226,0,0,0,?
2017-06-18 00:24:45.456439,4187.74193548,0,4188.38709677,0,4182.25806452,0,4171.61290323,0,4202.90322581,0,4164.19354839,0,4192.25806452,0,4184.83870968,0,4201.29032258,0,4173.87096774,0,4170.64516129,0,4174.51612903,0,4171.93548387,0,4238.70967742,0,0,0,?
2017-06-18 00:24:45.467520,4195.48387097,0,4201.61290323,0,4174.83870968,0,4147.41935484,0,4206.4516129,0,4205.16129032,0,4190.96774194,0,4185.16129032,0,4205.80645161,0,4180.0,0,4194.83870968,0,4188.70967742,0,4187.41935484,0,4240.96774194,0,0,0,?
2017-06-18 00:24:45.471456,4185.80645161,0,4186.12903226,0,4167.09677419,0,4170.96774194,0,4161.61290323,0,4209.67741935,0,4183.22580645,0,4181.61290323,0,4163.87096774,0,4170.32258065,0,4181.61290323,0,4175.16129032,0,4175.16129032,0,4227.74193548,0,0,0,?
2017-06-18 00:24:45.482456,4186.12903226,0,4169.35483871,0,4164.83870968,0,4170.32258065,0,4211.29032258,0,4163.5483871,0,4196.12903226,0,4180.32258065,0,4169.03225806,0,4169.67741935,0,4173.22580645,0,4168.70967742,0,4181.61290323,0,4225.80645161,0,0,0,?
2017-06-18 00:24:45.487473,4193.5483871,0,4180.64516129,0,4172.90322581,0,4170.96774194,0,4208.70967742,0,4161.29032258,0,4210.96774194,0,4186.12903226,0,4170.32258065,0,4188.06451613,0,4200.96774194,0,4188.38709677,0,4189.35483871,0,4238.38709677,0,0,0,?
2017-06-18 00:24:45.498513,4190.0,0,4198.06451613,0,4178.70967742,0,4176.4516129,0,4202.58064516,0,4202.90322581,0,4207.74193548,0,4197.41935484,0,4167.41935484,0,4201.93548387,0,4209.03225806,0,4198.38709677,0,4184.51612903,0,4243.22580645,0,0,0,?
2017-06-18 00:24:45.503456,4188.70967742,0,4202.25806452,0,4179.67741935,0,4164.51612903,0,4196.4516129,0,4194.51612903,0,4202.90322581,0,4196.12903226,0,4201.29032258,0,4195.16129032,0,4195.48387097,0,4201.61290323,0,4187.41935484,0,4239.67741935,0,0,0,?
2017-06-18 00:24:45.514546,4197.09677419,0,4206.12903226,0,4187.09677419,0,4163.5483871,0,4206.4516129,0,4194.19354839,0,4207.74193548,0,4180.32258065,0,4188.70967742,0,4177.41935484,0,4192.90322581,0,4200.0,0,4185.16129032,0,4239.03225806,0,0,0,?
2017-06-18 00:24:45.519484,4193.22580645,0,4200.96774194,0,4180.96774194,0,4173.22580645,0,4206.12903226,0,4197.09677419,0,4190.32258065,0,4160.0,0,4190.32258065,0,4160.64516129,0,4177.74193548,0,4166.12903226,0,4173.87096774,0,4238.38709677,0,0,0,?
2017-06-18 00:24:45.530488,4179.03225806,0,4194.83870968,0,4174.19354839,0,4141.29032258,0,4183.87096774,0,4202.58064516,0,4179.03225806,0,4166.4516129,0,4163.87096774,0,4158.38709677,0,4160.0,0,4146.12903226,0,4158.70967742,0,4238.38709677,0,0,0,?
2017-06-18 00:24:45.534454,4190.96774194,0,4206.12903226,0,4180.96774194,0,4132.58064516,0,4184.83870968,0,4202.58064516,0,4202.58064516,0,4196.12903226,0,4177.09677419,0,4176.12903226,0,4180.96774194,0,4178.06451613,0,4173.5483871,0,4242.58064516,0,0,0,?
2017-06-18 00:24:45.545483,4201.93548387,0,4206.77419355,0,4179.03225806,0,4176.77419355,0,4204.83870968,0,4202.90322581,0,4209.03225806,0,4195.80645161,0,4205.80645161,0,4182.58064516,0,4198.06451613,0,4199.35483871,0,4191.93548387,0,4198.38709677,0,0,0,?
2017-06-18 00:24:45.550510,4188.70967742,0,4181.93548387,0,4175.16129032,0,4189.35483871,0,4204.51612903,0,4208.38709677,0,4189.67741935,0,4171.29032258,0,4186.4516129,0,4169.03225806,0,4190.96774194,0,4193.5483871,0,4180.32258065,0,4197.74193548,0,0,0,?
2017-06-18 00:24:45.561497,4191.29032258,0,4180.0,0,4181.61290323,0,4161.61290323,0,4200.0,0,4204.83870968,0,4191.29032258,0,4181.61290323,0,4201.29032258,0,4184.19354839,0,4200.32258065,0,4202.58064516,0,4184.83870968,0,4204.51612903,0,0,0,?
2017-06-18 00:24:45.566508,4195.48387097,0,4204.19354839,0,4183.87096774,0,4158.38709677,0,4206.12903226,0,4186.4516129,0,4197.41935484,0,4195.16129032,0,4174.83870968,0,4199.67741935,0,4161.93548387,0,4192.25806452,0,4184.83870968,0,4210.64516129,0,0,0,?
2017-06-18 00:24:45.577467,4189.03225806,0,4204.83870968,0,4183.22580645,0,4188.06451613,0,4200.0,0,4169.03225806,0,4169.67741935,0,4165.16129032,0,4209.67741935,0,4180.32258065,0,4200.64516129,0,4159.67741935,0,4176.77419355,0,4204.51612903,0,0,0,?
2017-06-18 00:24:45.582472,4199.03225806,0,4201.29032258,0,4193.22580645,0,4193.22580645,0,4199.67741935,0,4182.90322581,0,4154.19354839,0,4146.4516129,0,4185.48387097,0,4177.74193548,0,4200.64516129,0,4172.90322581,0,4189.03225806,0,4213.22580645,0,0,0,?
2017-06-18 00:24:45.593537,4200.64516129,0,4206.77419355,0,4193.87096774,0,4201.61290323,0,4208.70967742,0,4205.16129032,0,4179.03225806,0,4175.16129032,0,4200.64516129,0,4203.5483871,0,4174.51612903,0,4163.5483871,0,4190.64516129,0,4224.19354839,0,0,0,?
2017-06-18 00:24:45.597517,4200.96774194,0,4197.74193548,0,4193.87096774,0,4208.70967742,0,4210.0,0,4200.0,0,4208.38709677,0,4162.90322581,0,4185.48387097,0,4179.03225806,0,4193.22580645,0,4180.96774194,0,4202.90322581,0,4220.96774194,0,0,0,?
2017-06-18 00:24:45.609580,4211.29032258,0,4208.38709677,0,4209.67741935,0,4172.25806452,0,4163.5483871,0,4192.25806452,0,4161.29032258,0,4174.51612903,0,4202.25806452,0,4197.41935484,0,4197.41935484,0,4195.80645161,0,4168.38709677,0,4223.22580645,0,0,0,?
2017-06-18 00:24:45.613476,4165.80645161,0,4179.35483871,0,4163.22580645,0,4179.03225806,0,4202.90322581,0,4195.80645161,0,4200.0,0,4210.0,0,4198.06451613,0,4188.38709677,0,4194.19354839,0,4191.29032258,0,4209.35483871,0,4233.87096774,0,0,0,?
2017-06-18 00:24:45.624513,4169.67741935,0,4169.67741935,0,4208.70967742,0,4155.16129032,0,4190.32258065,0,4203.22580645,0,4161.93548387,0,4206.4516129,0,4191.93548387,0,4162.90322581,0,4191.93548387,0,4163.87096774,0,4203.87096774,0,4231.93548387,0,0,0,?
2017-06-18 00:24:45.629460,4166.12903226,0,4208.06451613,0,4211.29032258,0,4165.16129032,0,4205.16129032,0,4209.67741935,0,4174.19354839,0,4164.19354839,0,4189.35483871,0,4170.96774194,0,4191.61290323,0,4172.90322581,0,4162.25806452,0,4228.06451613,0,0,0,?
2017-06-18 00:24:45.640462,4201.93548387,0,4205.16129032,0,4203.87096774,0,4197.09677419,0,4163.5483871,0,4202.25806452,0,4200.0,0,4210.96774194,0,4190.64516129,0,4188.38709677,0,4180.64516129,0,4187.09677419,0,4164.19354839,0,4228.38709677,0,0,0,?
2017-06-18 00:24:45.645554,4192.25806452,0,4211.29032258,0,4163.22580645,0,4157.41935484,0,4198.06451613,0,4189.03225806,0,4182.58064516,0,4200.0,0,4193.87096774,0,4180.0,0,4172.90322581,0,4165.80645161,0,4195.16129032,0,4221.29032258,0,0,0,?
2017-06-18 00:24:45.656501,4162.90322581,0,4187.09677419,0,4193.22580645,0,4158.38709677,0,4206.4516129,0,4201.93548387,0,4210.96774194,0,4204.51612903,0,4213.22580645,0,4190.32258065,0,4192.25806452,0,4178.06451613,0,4208.70967742,0,4228.38709677,0,0,0,?
2017-06-18 00:24:45.660525,4175.16129032,0,4193.87096774,0,4192.58064516,0,4182.58064516,0,4179.03225806,0,4173.87096774,0,4200.96774194,0,4181.29032258,0,4233.5483871,0,4202.58064516,0,4196.12903226,0,4202.90322581,0,4180.32258065,0,4242.90322581,0,0,0,?
2017-06-18 00:24:45.671500,4185.80645161,0,4201.93548387,0,4203.5483871,0,4169.03225806,0,4172.90322581,0,4164.51612903,0,4199.03225806,0,4196.77419355,0,4218.38709677,0,4169.67741935,0,4205.16129032,0,4166.12903226,0,4186.12903226,0,4217.09677419,0,0,0,?
2017-06-18 00:24:45.676518,4175.16129032,0,4188.06451613,0,4190.64516129,0,4180.0,0,4206.4516129,0,4200.0,0,4169.35483871,0,4182.25806452,0,4193.22580645,0,4204.83870968,0,4193.87096774,0,4202.58064516,0,4177.74193548,0,4240.96774194,0,0,0,?
2017-06-18 00:24:45.687459,4200.64516129,0,4168.70967742,0,4163.5483871,0,4166.4516129,0,4202.90322581,0,4210.0,0,4210.96774194,0,4170.96774194,0,4209.67741935,0,4180.32258065,0,4172.58064516,0,4188.38709677,0,4161.93548387,0,4207.74193548,0,0,0,?
2017-06-18 00:24:45.692486,4189.67741935,0,4202.25806452,0,4208.70967742,0,4158.70967742,0,4204.83870968,0,4162.25806452,0,4169.67741935,0,4172.58064516,0,4212.58064516,0,4178.70967742,0,4168.06451613,0,4177.41935484,0,4194.83870968,0,4207.74193548,0,0,0,?
2017-06-18 00:24:45.703468,4166.12903226,0,4158.70967742,0,4171.29032258,0,4210.32258065,0,4205.48387097,0,4201.29032258,0,4162.58064516,0,4162.25806452,0,4166.4516129,0,4204.83870968,0,4193.5483871,0,4199.67741935,0,4174.51612903,0,4229.35483871,0,0,0,?
2017-06-18 00:24:45.708492,4177.74193548,0,4177.74193548,0,4160.96774194,0,4146.77419355,0,4207.09677419,0,4203.22580645,0,4195.16129032,0,4204.83870968,0,4161.93548387,0,4204.83870968,0,4196.12903226,0,4208.06451613,0,4181.29032258,0,4235.48387097,0,0,0,?
2017-06-18 00:24:45.719457,4199.67741935,0,4163.22580645,0,4191.61290323,0,4156.12903226,0,4208.06451613,0,4209.03225806,0,4201.93548387,0,4209.67741935,0,4195.80645161,0,4210.96774194,0,4207.74193548,0,4206.77419355,0,4193.5483871,0,4216.12903226,0,0,0,?
2017-06-18 00:24:45.724465,4194.83870968,0,4196.12903226,0,4161.93548387,0,4154.19354839,0,4192.90322581,0,4192.90322581,0,4170.96774194,0,4204.19354839,0,4194.51612903,0,4204.51612903,0,4206.4516129,0,4194.83870968,0,4189.67741935,0,4223.22580645,0,0,0,?
2017-06-18 00:24:45.735508,4189.35483871,0,4173.5483871,0,4196.4516129,0,4182.58064516,0,4167.74193548,0,4169.03225806,0,4194.51612903,0,4180.32258065,0,4211.29032258,0,4198.06451613,0,4202.90322581,0,4196.77419355,0,4176.77419355,0,4212.58064516,0,0,0,?
2017-06-18 00:24:45.739470,4196.4516129,0,4194.19354839,0,4189.67741935,0,4154.51612903,0,4176.4516129,0,4168.38709677,0,4144.83870968,0,4162.58064516,0,4190.32258065,0,4193.22580645,0,4206.12903226,0,4193.5483871,0,4184.19354839,0,4214.19354839,0,0,0,?
2017-06-18 00:24:45.750455,4190.0,0,4161.93548387,0,4206.4516129,0,4178.06451613,0,4200.96774194,0,4181.29032258,0,4149.35483871,0,4169.03225806,0,4201.93548387,0,4186.12903226,0,4205.48387097,0,4183.5483871,0,4180.96774194,0,4216.12903226,0,0,0,?
2017-06-18 00:24:45.755465,4181.29032258,0,4190.0,0,4193.22580645,0,4146.12903226,0,4184.83870968,0,4175.48387097,0,4167.09677419,0,4169.67741935,0,4197.74193548,0,4176.77419355,0,4188.06451613,0,4168.70967742,0,4169.03225806,0,4205.16129032,0,0,0,?
2017-06-18 00:24:45.766499,4173.5483871,0,4167.41935484,0,4168.38709677,0,4152.25806452,0,4156.77419355,0,4157.09677419,0,4155.16129032,0,4163.5483871,0,4185.48387097,0,4168.06451613,0,4170.96774194,0,4160.96774194,0,4161.61290323,0,4240.32258065,0,0,0,?
2017-06-18 00:24:45.771466,4160.32258065,0,4173.87096774,0,4178.06451613,0,4173.22580645,0,4173.87096774,0,4162.90322581,0,4161.93548387,0,4169.67741935,0,4181.93548387,0,4167.41935484,0,4170.96774194,0,4169.03225806,0,4159.35483871,0,4230.96774194,0,0,0,?
2017-06-18 00:24:45.782733,4151.29032258,0,4165.16129032,0,4165.48387097,0,4149.67741935,0,4203.5483871,0,4176.77419355,0,4176.4516129,0,4170.0,0,4170.32258065,0,4159.35483871,0,4162.25806452,0,4167.74193548,0,4164.83870968,0,4209.03225806,0,0,0,?
2017-06-18 00:24:45.787485,4141.29032258,0,4140.64516129,0,4129.03225806,0,4177.41935484,0,4196.4516129,0,4184.51612903,0,4175.16129032,0,4168.06451613,0,4174.83870968,0,4150.0,0,4140.64516129,0,4155.16129032,0,4142.25806452,0,4189.35483871,0,0,0,?
2017-06-18 00:24:45.798530,4141.93548387,0,4153.22580645,0,4143.87096774,0,4177.09677419,0,4171.61290323,0,4195.16129032,0,4190.96774194,0,4189.67741935,0,4207.74193548,0,4160.0,0,4138.06451613,0,4163.87096774,0,4133.22580645,0,4207.41935484,0,0,0,?
2017-06-18 00:24:45.802461,4154.19354839,0,4172.25806452,0,4181.61290323,0,4161.29032258,0,4166.12903226,0,4189.35483871,0,4200.64516129,0,4209.03225806,0,4168.70967742,0,4170.0,0,4154.83870968,0,4175.80645161,0,4153.5483871,0,4229.03225806,0,0,0,?
2017-06-18 00:24:45.813530,4162.25806452,0,4170.64516129,0,4180.64516129,0,4140.64516129,0,4182.25806452,0,4174.19354839,0,4180.64516129,0,4201.93548387,0,4210.64516129,0,4172.90322581,0,4163.5483871,0,4169.03225806,0,4154.19354839,0,4232.90322581,0,0,0,?
2017-06-18 00:24:45.818473,4175.48387097,0,4184.19354839,0,4175.16129032,0,4132.58064516,0,4181.29032258,0,4168.38709677,0,4168.70967742,0,4190.64516129,0,4169.67741935,0,4186.4516129,0,4170.64516129,0,4176.12903226,0,4165.48387097,0,4241.61290323,0,0,0,?
2017-06-18 00:24:45.829510,4178.38709677,0,4188.38709677,0,4190.0,0,4161.93548387,0,4169.03225806,0,4165.80645161,0,4170.0,0,4194.19354839,0,4174.19354839,0,4197.09677419,0,4185.16129032,0,4197.41935484,0,4179.35483871,0,4240.64516129,0,0,0,?
2017-06-18 00:24:45.834599,4176.4516129,0,4178.70967742,0,4200.32258065,0,4190.32258065,0,4185.48387097,0,4172.58064516,0,4182.58064516,0,4207.41935484,0,4175.48387097,0,4200.64516129,0,4205.80645161,0,4207.41935484,0,4187.74193548,0,4242.25806452,0,0,0,?
2017-06-18 00:24:45.845507,4183.87096774,0,4191.61290323,0,4198.06451613,0,4145.16129032,0,4162.25806452,0,4196.77419355,0,4197.09677419,0,4204.51612903,0,4188.06451613,0,4201.93548387,0,4211.29032258,0,4206.12903226,0,4192.25806452,0,4213.87096774,0,0,0,?
2017-06-18 00:24:45.850503,4179.67741935,0,4203.5483871,0,4195.16129032,0,4130.96774194,0,4209.03225806,0,4202.25806452,0,4184.51612903,0,4189.35483871,0,4187.09677419,0,4197.41935484,0,4187.74193548,0,4200.96774194,0,4175.80645161,0,4219.35483871,0,0,0,?
2017-06-18 00:24:45.861555,4177.41935484,0,4192.58064516,0,4193.22580645,0,4176.4516129,0,4200.96774194,0,4192.58064516,0,4175.16129032,0,4196.12903226,0,4173.22580645,0,4196.77419355,0,4181.61290323,0,4200.0,0,4176.12903226,0,4195.48387097,0,0,0,?
2017-06-18 00:24:45.865630,4183.22580645,0,4188.38709677,0,4183.5483871,0,4181.93548387,0,4209.03225806,0,4201.61290323,0,4204.51612903,0,4166.4516129,0,4165.48387097,0,4209.67741935,0,4205.80645161,0,4162.25806452,0,4178.06451613,0,4235.48387097,0,0,0,?
2017-06-18 00:24:45.876503,4185.16129032,0,4188.06451613,0,4171.29032258,0,4178.06451613,0,4193.22580645,0,4163.22580645,0,4162.58064516,0,4208.38709677,0,4180.64516129,0,4205.48387097,0,4204.83870968,0,4165.16129032,0,4174.19354839,0,4194.51612903,0,0,0,?
2017-06-18 00:24:45.881523,4170.96774194,0,4174.19354839,0,4169.03225806,0,4160.0,0,4183.22580645,0,4203.22580645,0,4182.58064516,0,4186.12903226,0,4194.83870968,0,4179.35483871,0,4174.51612903,0,4192.25806452,0,4169.03225806,0,4232.25806452,0,0,0,?
2017-06-18 00:24:45.892496,4144.19354839,0,4164.83870968,0,4168.06451613,0,4174.51612903,0,4193.87096774,0,4177.09677419,0,4165.48387097,0,4172.25806452,0,4170.64516129,0,4168.38709677,0,4156.77419355,0,4176.4516129,0,4150.64516129,0,4200.64516129,0,0,0,?
2017-06-18 00:24:45.897467,4149.03225806,0,4163.22580645,0,4161.93548387,0,4161.61290323,0,4179.03225806,0,4159.35483871,0,4163.22580645,0,4161.29032258,0,4194.83870968,0,4174.51612903,0,4155.16129032,0,4174.51612903,0,4153.22580645,0,4198.70967742,0,0,0,?
2017-06-18 00:24:45.908543,4166.4516129,0,4169.67741935,0,4169.03225806,0,4161.93548387,0,4171.93548387,0,4169.67741935,0,4161.93548387,0,4171.93548387,0,4162.58064516,0,4169.35483871,0,4150.64516129,0,4167.74193548,0,4154.51612903,0,4216.12903226,0,0,0,?
2017-06-18 00:24:45.913457,4165.48387097,0,4181.29032258,0,4187.41935484,0,4131.61290323,0,4201.29032258,0,4186.12903226,0,4160.32258065,0,4181.61290323,0,4170.64516129,0,4163.5483871,0,4147.74193548,0,4166.4516129,0,4147.74193548,0,4223.22580645,0,0,0,?
2017-06-18 00:24:45.924519,4178.06451613,0,4196.12903226,0,4198.70967742,0,4149.35483871,0,4161.29032258,0,4189.67741935,0,4163.5483871,0,4168.06451613,0,4195.48387097,0,4186.12903226,0,4155.48387097,0,4187.74193548,0,4160.64516129,0,4227.74193548,0,0,0,?
2017-06-18 00:24:45.928489,4193.87096774,0,4210.0,0,4208.06451613,0,4171.93548387,0,4163.87096774,0,4201.29032258,0,4181.29032258,0,4181.61290323,0,4201.93548387,0,4210.0,0,4169.35483871,0,4210.64516129,0,4164.19354839,0,4233.5483871,0,0,0,?
2017-06-18 00:24:45.939477,4210.64516129,0,4165.80645161,0,4181.29032258,0,4189.03225806,0,4186.77419355,0,4163.87096774,0,4209.67741935,0,4177.41935484,0,4222.90322581,0,4175.80645161,0,4204.83870968,0,4178.70967742,0,4188.06451613,0,4203.22580645,0,0,0,?
2017-06-18 00:24:45.944478,4176.77419355,0,4168.06451613,0,4190.96774194,0,4189.35483871,0,4177.09677419,0,4208.38709677,0,4165.80645161,0,4187.09677419,0,4209.67741935,0,4202.58064516,0,4185.48387097,0,4194.51612903,0,4165.16129032,0,4232.25806452,0,0,0,?
2017-06-18 00:24:45.955615,4167.41935484,0,4162.90322581,0,4162.90322581,0,4195.80645161,0,4201.29032258,0,4194.51612903,0,4187.41935484,0,4204.83870968,0,4209.35483871,0,4198.70967742,0,4169.67741935,0,4182.25806452,0,4200.0,0,4227.41935484,0,0,0,?
2017-06-18 00:24:45.960453,4209.03225806,0,4209.03225806,0,4202.58064516,0,4209.03225806,0,4209.35483871,0,4190.0,0,4176.4516129,0,4200.32258065,0,4190.96774194,0,4164.83870968,0,4205.80645161,0,4205.48387097,0,4188.06451613,0,4210.32258065,0,0,0,?
2017-06-18 00:24:45.971483,4166.12903226,0,4162.58064516,0,4173.5483871,0,4175.16129032,0,4170.32258065,0,4199.35483871,0,4179.03225806,0,4168.70967742,0,4208.70967742,0,4205.80645161,0,4170.32258065,0,4206.77419355,0,4193.87096774,0,4219.35483871,0,0,0,?
2017-06-18 00:24:45.975533,4208.70967742,0,4162.25806452,0,4171.93548387,0,4147.74193548,0,4161.61290323,0,4202.90322581,0,4169.67741935,0,4199.67741935,0,4167.74193548,0,4161.93548387,0,4168.70967742,0,4166.4516129,0,4193.5483871,0,4213.22580645,0,0,0,?
2017-06-18 00:24:45.987521,4183.87096774,0,4201.61290323,0,4202.25806452,0,4186.12903226,0,4205.48387097,0,4198.06451613,0,4177.74193548,0,4177.74193548,0,4196.12903226,0,4200.96774194,0,4191.61290323,0,4190.32258065,0,4168.70967742,0,4238.70967742,0,0,0,?
2017-06-18 00:24:45.991600,4182.25806452,0,4192.25806452,0,4197.09677419,0,4200.96774194,0,4208.70967742,0,4194.83870968,0,4186.12903226,0,4182.90322581,0,4169.35483871,0,4190.32258065,0,4181.61290323,0,4160.32258065,0,4153.22580645,0,4235.80645161,0,0,0,?
2017-06-18 00:24:46.002504,4195.80645161,0,4190.0,0,4192.58064516,0,4165.16129032,0,4206.77419355,0,4191.61290323,0,4159.35483871,0,4180.32258065,0,4207.74193548,0,4189.67741935,0,4190.32258065,0,4173.22580645,0,4172.25806452,0,4237.74193548,0,0,0,?
2017-06-18 00:24:46.007546,4200.32258065,0,4202.25806452,0,4203.5483871,0,4132.58064516,0,4202.25806452,0,4193.87096774,0,4160.32258065,0,4185.80645161,0,4178.38709677,0,4200.96774194,0,4205.48387097,0,4208.70967742,0,4183.87096774,0,4197.09677419,0,0,0,?
2017-06-18 00:24:46.018496,4162.58064516,0,4172.25806452,0,4177.41935484,0,4170.96774194,0,4205.80645161,0,4209.67741935,0,4199.67741935,0,4210.96774194,0,4230.96774194,0,4167.74193548,0,4170.96774194,0,4165.16129032,0,4198.06451613,0,4216.12903226,0,0,0,?
2017-06-18 00:24:46.023505,4199.03225806,0,4202.58064516,0,4209.03225806,0,4151.93548387,0,4205.16129032,0,4204.51612903,0,4187.74193548,0,4206.4516129,0,4190.0,0,4162.25806452,0,4210.0,0,4200.96774194,0,4194.19354839,0,4194.83870968,0,0,0,?
2017-06-18 00:24:46.034556,4171.93548387,0,4174.51612903,0,4184.19354839,0,4181.29032258,0,4196.77419355,0,4179.03225806,0,4162.25806452,0,4190.0,0,4199.03225806,0,4201.61290323,0,4189.03225806,0,4202.90322581,0,4168.06451613,0,4217.41935484,0,0,0,?
2017-06-18 00:24:46.039541,4189.03225806,0,4194.51612903,0,4195.48387097,0,4176.12903226,0,4200.0,0,4183.5483871,0,4190.0,0,4201.93548387,0,4205.16129032,0,4206.77419355,0,4180.0,0,4201.93548387,0,4172.90322581,0,4235.80645161,0,0,0,?
2017-06-18 00:24:46.050464,4161.29032258,0,4168.06451613,0,4165.80645161,0,4165.48387097,0,4163.22580645,0,4205.80645161,0,4166.4516129,0,4169.03225806,0,4226.12903226,0,4209.67741935,0,4179.67741935,0,4195.16129032,0,4184.51612903,0,4201.93548387,0,0,0,?
2017-06-18 00:24:46.055479,4169.35483871,0,4161.93548387,0,4176.12903226,0,4154.19354839,0,4165.48387097,0,4205.48387097,0,4211.29032258,0,4177.41935484,0,4174.83870968,0,4206.12903226,0,4192.58064516,0,4200.32258065,0,4195.16129032,0,4194.83870968,0,0,0,?
2017-06-18 00:24:46.066534,4173.22580645,0,4163.22580645,0,4177.74193548,0,4162.58064516,0,4210.96774194,0,4203.87096774,0,4203.87096774,0,4175.80645161,0,4172.90322581,0,4202.58064516,0,4201.61290323,0,4205.80645161,0,4202.58064516,0,4242.58064516,0,0,0,?
2017-06-18 00:24:46.070487,4206.4516129,0,4166.4516129,0,4164.19354839,0,4197.41935484,0,4163.5483871,0,4210.64516129,0,4200.96774194,0,4163.22580645,0,4209.35483871,0,4200.64516129,0,4192.90322581,0,4196.12903226,0,4187.09677419,0,4238.06451613,0,0,0,?
2017-06-18 00:24:46.081492,4194.19354839,0,4207.09677419,0,4203.22580645,0,4187.74193548,0,4164.51612903,0,4162.25806452,0,4201.29032258,0,4202.25806452,0,4190.32258065,0,4207.09677419,0,4191.61290323,0,4198.38709677,0,4186.77419355,0,4243.22580645,0,0,0,?
2017-06-18 00:24:46.086460,4203.22580645,0,4164.83870968,0,4161.61290323,0,4152.25806452,0,4209.03225806,0,4209.67741935,0,4161.93548387,0,4201.29032258,0,4171.93548387,0,4206.77419355,0,4202.25806452,0,4209.67741935,0,4193.5483871,0,4203.87096774,0,0,0,?
2017-06-18 00:24:46.097471,4170.0,0,4168.38709677,0,4161.61290323,0,4162.58064516,0,4201.61290323,0,4208.06451613,0,4163.87096774,0,4169.67741935,0,4200.96774194,0,4208.70967742,0,4199.67741935,0,4202.58064516,0,4200.0,0,4193.5483871,0,0,0,?
2017-06-18 00:24:46.102483,4180.32258065,0,4210.64516129,0,4163.87096774,0,4170.32258065,0,4209.67741935,0,4170.64516129,0,4161.93548387,0,4185.80645161,0,4212.90322581,0,4181.93548387,0,4165.16129032,0,4167.74193548,0,4170.32258065,0,4198.06451613,0,0,0,?
2017-06-18 00:24:46.113604,4171.61290323,0,4165.16129032,0,4168.06451613,0,4160.96774194,0,4173.87096774,0,4190.96774194,0,4167.74193548,0,4173.22580645,0,4201.29032258,0,4186.12903226,0,4185.48387097,0,4196.12903226,0,4176.4516129,0,4215.80645161,0,0,0,?
2017-06-18 00:24:46.118656,4163.5483871,0,4165.80645161,0,4202.25806452,0,4183.22580645,0,4170.32258065,0,4187.74193548,0,4163.5483871,0,4201.29032258,0,4194.51612903,0,4205.48387097,0,4171.93548387,0,4171.29032258,0,4165.48387097,0,4211.29032258,0,0,0,?
2017-06-18 00:24:46.129528,4171.61290323,0,4205.80645161,0,4195.16129032,0,4204.51612903,0,4162.25806452,0,4172.90322581,0,4208.70967742,0,4204.51612903,0,4186.12903226,0,4202.90322581,0,4163.87096774,0,4193.87096774,0,4200.32258065,0,4201.29032258,0,0,0,?
2017-06-18 00:24:46.133476,4178.70967742,0,4204.19354839,0,4203.5483871,0,4191.93548387,0,4210.64516129,0,4162.25806452,0,4209.03225806,0,4206.12903226,0,4192.90322581,0,4182.25806452,0,4188.38709677,0,4165.48387097,0,4161.61290323,0,4206.12903226,0,0,0,?
2017-06-18 00:24:46.144491,4168.38709677,0,4164.83870968,0,4165.16129032,0,4142.58064516,0,4208.38709677,0,4210.64516129,0,4207.74193548,0,4201.29032258,0,4208.70967742,0,4194.51612903,0,4199.67741935,0,4179.67741935,0,4177.74193548,0,4202.90322581,0,0,0,?
2017-06-18 00:24:46.149476,4195.16129032,0,4170.0,0,4167.74193548,0,4167.09677419,0,4208.70967742,0,4169.35483871,0,4209.35483871,0,4161.61290323,0,4204.83870968,0,4181.61290323,0,4184.51612903,0,4162.25806452,0,4204.83870968,0,4235.48387097,0,0,0,?
2017-06-18 00:24:46.160526,4197.74193548,0,4161.93548387,0,4209.03225806,0,4174.83870968,0,4163.87096774,0,4170.64516129,0,4203.5483871,0,4162.58064516,0,4216.4516129,0,4166.12903226,0,4169.67741935,0,4207.09677419,0,4197.74193548,0,4237.09677419,0,0,0,?
2017-06-18 00:24:46.165472,4166.12903226,0,4207.41935484,0,4202.90322581,0,4189.35483871,0,4165.80645161,0,4208.06451613,0,4211.29032258,0,4161.61290323,0,4235.80645161,0,4162.58064516,0,4161.29032258,0,4163.22580645,0,4204.51612903,0,4198.38709677,0,0,0,?
2017-06-18 00:24:46.176563,4165.48387097,0,4161.29032258,0,4207.41935484,0,4168.70967742,0,4164.83870968,0,4206.12903226,0,4186.4516129,0,4171.29032258,0,4210.0,0,4168.70967742,0,4164.83870968,0,4162.25806452,0,4200.96774194,0,4197.74193548,0,0,0,?
2017-06-18 00:24:46.181485,4194.51612903,0,4209.67741935,0,4162.58064516,0,4164.51612903,0,4164.51612903,0,4210.0,0,4177.74193548,0,4210.64516129,0,4186.77419355,0,4162.90322581,0,4164.51612903,0,4204.83870968,0,4195.48387097,0,4237.74193548,0,0,0,?
2017-06-18 00:24:46.192479,4183.22580645,0,4207.09677419,0,4208.38709677,0,4164.83870968,0,4208.06451613,0,4207.09677419,0,4203.5483871,0,4187.74193548,0,4209.03225806,0,4206.77419355,0,4205.80645161,0,4200.32258065,0,4180.32258065,0,4234.83870968,0,0,0,?
2017-06-18 00:24:46.196487,4198.06451613,0,4207.74193548,0,4198.06451613,0,4185.16129032,0,4202.90322581,0,4203.87096774,0,4196.12903226,0,4180.96774194,0,4193.22580645,0,4161.29032258,0,4200.0,0,4199.03225806,0,4181.29032258,0,4238.70967742,0,0,0,?
2017-06-18 00:24:46.207468,4209.03225806,0,4203.5483871,0,4196.4516129,0,4179.67741935,0,4203.87096774,0,4206.12903226,0,4191.93548387,0,4187.09677419,0,4204.19354839,0,4164.51612903,0,4205.80645161,0,4202.90322581,0,4193.87096774,0,4195.80645161,0,0,0,?
2017-06-18 00:24:46.212499,4168.06451613,0,4211.29032258,0,4209.03225806,0,4191.29032258,0,4208.06451613,0,4208.70967742,0,4197.41935484,0,4205.16129032,0,4199.35483871,0,4164.51612903,0,4180.64516129,0,4162.90322581,0,4161.29032258,0,4221.61290323,0,0,0,?
2017-06-18 00:24:46.223474,4173.87096774,0,4169.35483871,0,4163.5483871,0,4207.09677419,0,4209.35483871,0,4203.87096774,0,4211.29032258,0,4208.38709677,0,4235.80645161,0,4164.83870968,0,4180.32258065,0,4162.58064516,0,4170.64516129,0,4224.51612903,0,0,0,?
2017-06-18 00:24:46.228512,4162.25806452,0,4209.67741935,0,4202.25806452,0,4171.93548387,0,4207.09677419,0,4207.41935484,0,4161.93548387,0,4187.74193548,0,4178.70967742,0,4162.90322581,0,4161.61290323,0,4204.83870968,0,4199.35483871,0,4203.5483871,0,0,0,?
2017-06-18 00:24:46.239509,4174.19354839,0,4206.77419355,0,4204.19354839,0,4136.12903226,0,4190.96774194,0,4204.19354839,0,4198.38709677,0,4187.41935484,0,4200.32258065,0,4166.12903226,0,4183.22580645,0,4168.38709677,0,4205.48387097,0,4211.29032258,0,0,0,?
2017-06-18 00:24:46.244465,4183.22580645,0,4208.70967742,0,4161.61290323,0,4183.87096774,0,4167.74193548,0,4170.96774194,0,4173.22580645,0,4192.25806452,0,4174.83870968,0,4210.96774194,0,4192.25806452,0,4161.29032258,0,4164.83870968,0,4219.67741935,0,0,0,?
2017-06-18 00:24:46.255508,4208.06451613,0,4197.74193548,0,4201.61290323,0,4206.4516129,0,4179.35483871,0,4163.5483871,0,4157.09677419,0,4162.90322581,0,4202.58064516,0,4194.51612903,0,4207.74193548,0,4179.35483871,0,4181.29032258,0,4198.38709677,0,0,0,?
2017-06-18 00:24:46.259475,4201.29032258,0,4199.35483871,0,4195.48387097,0,4168.38709677,0,4163.5483871,0,4201.61290323,0,4171.61290323,0,4162.58064516,0,4191.93548387,0,4190.96774194,0,4200.64516129,0,4174.19354839,0,4173.5483871,0,4238.38709677,0,0,0,?
2017-06-18 00:24:46.270471,4164.19354839,0,4165.80645161,0,4210.0,0,4160.32258065,0,4166.12903226,0,4166.12903226,0,4184.51612903,0,4210.64516129,0,4193.87096774,0,4201.93548387,0,4166.77419355,0,4187.74193548,0,4185.16129032,0,4193.5483871,0,0,0,?
2017-06-18 00:24:46.275471,4168.06451613,0,4164.83870968,0,4169.35483871,0,4165.80645161,0,4200.96774194,0,4196.4516129,0,4171.93548387,0,4205.16129032,0,4190.64516129,0,4209.03225806,0,4208.38709677,0,4188.06451613,0,4187.74193548,0,4200.0,0,0,0,?
2017-06-18 00:24:46.286480,4165.80645161,0,4203.87096774,0,4203.87096774,0,4195.48387097,0,4206.77419355,0,4196.12903226,0,4159.35483871,0,4157.09677419,0,4195.80645161,0,4202.25806452,0,4197.74193548,0,4180.32258065,0,4188.06451613,0,4205.16129032,0,0,0,?
2017-06-18 00:24:46.291474,4171.61290323,0,4165.16129032,0,4198.70967742,0,4205.16129032,0,4165.48387097,0,4205.80645161,0,4170.96774194,0,4162.58064516,0,4162.90322581,0,4207.41935484,0,4210.0,0,4182.90322581,0,4193.5483871,0,4211.61290323,0,0,0,?
2017-06-18 00:24:46.302457,4199.03225806,0,4190.32258065,0,4171.29032258,0,4160.96774194,0,4208.70967742,0,4199.03225806,0,4206.12903226,0,4204.51612903,0,4193.22580645,0,4186.4516129,0,4188.06451613,0,4209.67741935,0,4174.83870968,0,4220.32258065,0,0,0,?
2017-06-18 00:24:46.307461,4210.96774194,0,4200.32258065,0,4190.96774194,0,4183.5483871,0,4204.83870968,0,4202.58064516,0,4175.48387097,0,4169.03225806,0,4210.0,0,4208.38709677,0,4206.77419355,0,4199.67741935,0,4191.61290323,0,4232.58064516,0,0,0,?
2017-06-18 00:24:46.318477,4192.90322581,0,4184.83870968,0,4187.41935484,0,4205.80645161,0,4210.0,0,4163.87096774,0,4163.22580645,0,4207.09677419,0,4224.51612903,0,4199.35483871,0,4200.64516129,0,4193.5483871,0,4179.67741935,0,4230.0,0,0,0,?
2017-06-18 00:24:46.322478,4172.90322581,0,4210.32258065,0,4162.90322581,0,4183.87096774,0,4207.74193548,0,4207.74193548,0,4210.64516129,0,4203.87096774,0,4221.61290323,0,4189.35483871,0,4191.29032258,0,4207.74193548,0,4165.16129032,0,4210.32258065,0,0,0,?
2017-06-18 00:24:46.334454,4176.4516129,0,4207.74193548,0,4204.19354839,0,4176.77419355,0,4196.4516129,0,4194.19354839,0,4165.16129032,0,4209.67741935,0,4216.77419355,0,4200.64516129,0,4194.19354839,0,4172.58064516,0,4169.03225806,0,4212.58064516,0,0,0,?
2017-06-18 00:24:46.338504,4198.70967742,0,4180.96774194,0,4175.80645161,0,4195.16129032,0,4196.4516129,0,4199.03225806,0,4206.4516129,0,4208.38709677,0,4217.09677419,0,4201.93548387,0,4196.77419355,0,4202.25806452,0,4192.58064516,0,4228.06451613,0,0,0,?
2017-06-18 00:24:46.349544,4211.29032258,0,4199.03225806,0,4191.93548387,0,4161.61290323,0,4205.48387097,0,4161.93548387,0,4204.83870968,0,4164.19354839,0,4220.64516129,0,4200.64516129,0,4200.64516129,0,4200.0,0,4187.41935484,0,4225.16129032,0,0,0,?
2017-06-18 00:24:46.354453,4217.74193548,0,4197.74193548,0,4179.35483871,0,4208.38709677,0,4202.90322581,0,4163.5483871,0,4162.58064516,0,4171.93548387,0,4235.48387097,0,4215.48387097,0,4205.48387097,0,4192.58064516,0,4186.12903226,0,4221.29032258,0,0,0,?
2017-06-18 00:24:46.365457,4203.5483871,0,4194.19354839,0,4165.80645161,0,4167.09677419,0,4199.03225806,0,4208.70967742,0,4166.77419355,0,4211.29032258,0,4239.03225806,0,4219.67741935,0,4203.5483871,0,4197.09677419,0,4199.03225806,0,4225.48387097,0,0,0,?
2017-06-18 00:24:46.370493,4178.06451613,0,4191.93548387,0,4164.51612903,0,4210.0,0,4203.87096774,0,4200.0,0,4210.96774194,0,4164.83870968,0,4225.80645161,0,4197.74193548,0,4196.12903226,0,4191.29032258,0,4178.06451613,0,4218.38709677,0,0,0,?
2017-06-18 00:24:46.381509,4187.09677419,0,4185.48387097,0,4163.5483871,0,4203.87096774,0,4205.80645161,0,4198.38709677,0,4210.32258065,0,4188.70967742,0,4227.74193548,0,4194.19354839,0,4193.87096774,0,4185.48387097,0,4173.22580645,0,4211.61290323,0,0,0,?
2017-06-18 00:24:46.385469,4199.03225806,0,4190.32258065,0,4169.67741935,0,4172.58064516,0,4207.74193548,0,4206.12903226,0,4165.16129032,0,4183.87096774,0,4240.32258065,0,4226.12903226,0,4203.87096774,0,4200.0,0,4195.48387097,0,4224.19354839,0,0,0,?
2017-06-18 00:24:46.396488,4180.0,0,4188.38709677,0,4166.4516129,0,4168.38709677,0,4206.77419355,0,4200.32258065,0,4161.61290323,0,4161.93548387,0,4224.19354839,0,4231.61290323,0,4205.48387097,0,4208.06451613,0,4196.12903226,0,4218.06451613,0,0,0,?
2017-06-18 00:24:46.401609,4168.38709677,0,4180.64516129,0,4202.25806452,0,4161.61290323,0,4207.09677419,0,4161.29032258,0,4174.19354839,0,4175.80645161,0,4204.51612903,0,4201.61290323,0,4197.74193548,0,4191.93548387,0,4175.80645161,0,4202.58064516,0,0,0,?
2017-06-18 00:24:46.412483,4178.38709677,0,4186.12903226,0,4201.93548387,0,4158.06451613,0,4169.35483871,0,4187.09677419,0,4192.58064516,0,4198.06451613,0,4216.4516129,0,4186.4516129,0,4183.22580645,0,4171.29032258,0,4203.87096774,0,4204.51612903,0,0,0,?
2017-06-18 00:24:46.417525,4178.38709677,0,4174.83870968,0,4200.0,0,4172.58064516,0,4201.61290323,0,4166.4516129,0,4175.16129032,0,4180.0,0,4241.93548387,0,4195.48387097,0,4164.51612903,0,4208.06451613,0,4203.87096774,0,4197.09677419,0,0,0,?
2017-06-18 00:24:46.428467,4161.93548387,0,4201.61290323,0,4195.48387097,0,4179.35483871,0,4168.06451613,0,4187.09677419,0,4195.16129032,0,4204.51612903,0,4229.35483871,0,4198.06451613,0,4206.12903226,0,4204.19354839,0,4197.41935484,0,4228.06451613,0,0,0,?
2017-06-18 00:24:46.433578,4163.22580645,0,4208.38709677,0,4202.25806452,0,4203.87096774,0,4189.67741935,0,4200.32258065,0,4210.64516129,0,4165.16129032,0,4190.32258065,0,4193.5483871,0,4163.87096774,0,4172.58064516,0,4196.4516129,0,4230.0,0,0,0,?
2017-06-18 00:24:46.444534,4184.19354839,0,4166.12903226,0,4210.96774194,0,4167.09677419,0,4161.29032258,0,4196.12903226,0,4164.51612903,0,4168.06451613,0,4188.38709677,0,4192.90322581,0,4181.29032258,0,4192.58064516,0,4168.06451613,0,4239.67741935,0,0,0,?
2017-06-18 00:24:46.449472,4182.58064516,0,4164.19354839,0,4210.0,0,4188.06451613,0,4175.80645161,0,4158.70967742,0,4169.67741935,0,4182.25806452,0,4199.03225806,0,4189.35483871,0,4192.25806452,0,4177.41935484,0,4169.03225806,0,4237.09677419,0,0,0,?
2017-06-18 00:24:46.460495,4179.67741935,0,4179.03225806,0,4209.35483871,0,4166.77419355,0,4157.74193548,0,4162.58064516,0,4159.35483871,0,4175.48387097,0,4200.96774194,0,4192.25806452,0,4195.48387097,0,4202.90322581,0,4174.83870968,0,4243.22580645,0,0,0,?
2017-06-18 00:24:46.464461,4181.93548387,0,4177.09677419,0,4203.87096774,0,4157.74193548,0,4180.0,0,4185.16129032,0,4184.51612903,0,4164.51612903,0,4217.41935484,0,4196.12903226,0,4194.83870968,0,4206.4516129,0,4173.22580645,0,4241.61290323,0,0,0,?
2017-06-18 00:24:46.475468,4170.96774194,0,4204.83870968,0,4204.19354839,0,4179.03225806,0,4183.22580645,0,4173.22580645,0,4180.0,0,4211.29032258,0,4210.32258065,0,4190.32258065,0,4188.06451613,0,4209.67741935,0,4204.19354839,0,4227.41935484,0,0,0,?
2017-06-18 00:24:46.480495,4177.09677419,0,4170.96774194,0,4174.51612903,0,4182.90322581,0,4171.29032258,0,4164.51612903,0,4160.0,0,4170.96774194,0,4184.19354839,0,4194.19354839,0,4192.58064516,0,4161.29032258,0,4168.06451613,0,4200.64516129,0,0,0,?
2017-06-18 00:24:46.491503,4190.0,0,4197.74193548,0,4177.74193548,0,4133.22580645,0,4170.32258065,0,4176.4516129,0,4165.48387097,0,4170.96774194,0,4193.87096774,0,4204.83870968,0,4201.61290323,0,4178.06451613,0,4181.93548387,0,4230.0,0,0,0,?
2017-06-18 00:24:46.496510,4191.93548387,0,4186.4516129,0,4210.32258065,0,4161.29032258,0,4173.87096774,0,4179.67741935,0,4178.38709677,0,4184.83870968,0,4196.77419355,0,4194.51612903,0,4201.29032258,0,4171.61290323,0,4177.74193548,0,4212.90322581,0,0,0,?
2017-06-18 00:24:46.507569,4178.70967742,0,4163.87096774,0,4207.09677419,0,4196.77419355,0,4173.5483871,0,4168.38709677,0,4178.70967742,0,4180.0,0,4167.74193548,0,4174.83870968,0,4185.48387097,0,4198.06451613,0,4209.03225806,0,4232.58064516,0,0,0,?
2017-06-18 00:24:46.512462,4168.38709677,0,4208.70967742,0,4207.74193548,0,4204.19354839,0,4164.51612903,0,4168.38709677,0,4179.35483871,0,4186.12903226,0,4177.74193548,0,4178.38709677,0,4167.74193548,0,4201.29032258,0,4196.77419355,0,4230.64516129,0,0,0,?
2017-06-18 00:24:46.523490,4180.96774194,0,4167.09677419,0,4209.03225806,0,4162.25806452,0,4165.80645161,0,4178.38709677,0,4168.70967742,0,4190.0,0,4205.80645161,0,4187.09677419,0,4167.09677419,0,4162.90322581,0,4210.64516129,0,4197.74193548,0,0,0,?
2017-06-18 00:24:46.527471,4169.03225806,0,4174.51612903,0,4164.19354839,0,4172.90322581,0,4174.83870968,0,4170.64516129,0,4161.93548387,0,4172.58064516,0,4186.12903226,0,4170.64516129,0,4206.77419355,0,4186.4516129,0,4187.74193548,0,4236.4516129,0,0,0,?
2017-06-18 00:24:46.538493,4189.03225806,0,4203.87096774,0,4195.16129032,0,4165.80645161,0,4173.22580645,0,4162.90322581,0,4156.12903226,0,4159.03225806,0,4190.32258065,0,4193.5483871,0,4175.16129032,0,4156.77419355,0,4159.03225806,0,4203.5483871,0,0,0,?
2017-06-18 00:24:46.543473,4196.4516129,0,4190.32258065,0,4181.29032258,0,4210.0,0,4172.90322581,0,4178.06451613,0,4142.90322581,0,4169.67741935,0,4189.67741935,0,4198.38709677,0,4176.77419355,0,4185.80645161,0,4178.70967742,0,4205.16129032,0,0,0,?
2017-06-18 00:24:46.554489,4170.0,0,4163.22580645,0,4162.25806452,0,4173.87096774,0,4172.58064516,0,4174.51612903,0,4147.74193548,0,4177.09677419,0,4187.41935484,0,4177.09677419,0,4162.90322581,0,4165.16129032,0,4201.29032258,0,4236.12903226,0,0,0,?
2017-06-18 00:24:46.559526,4166.77419355,0,4170.64516129,0,4174.83870968,0,4156.12903226,0,4171.61290323,0,4161.61290323,0,4165.16129032,0,4172.25806452,0,4206.4516129,0,4175.80645161,0,4170.64516129,0,4188.38709677,0,4202.58064516,0,4240.64516129,0,0,0,?
2017-06-18 00:24:46.570533,4198.70967742,0,4208.06451613,0,4205.80645161,0,4179.03225806,0,4190.64516129,0,4190.32258065,0,4175.80645161,0,4185.80645161,0,4174.51612903,0,4199.35483871,0,4197.74193548,0,4170.64516129,0,4192.90322581,0,4223.5483871,0,0,0,?
2017-06-18 00:24:46.575496,4202.58064516,0,4173.22580645,0,4170.0,0,4177.09677419,0,4205.80645161,0,4209.03225806,0,4177.41935484,0,4199.35483871,0,4197.74193548,0,4210.32258065,0,4207.09677419,0,4202.25806452,0,4208.70967742,0,4229.35483871,0,0,0,?
2017-06-18 00:24:46.586528,4207.74193548,0,4189.03225806,0,4193.5483871,0,4168.38709677,0,4196.77419355,0,4195.80645161,0,4184.19354839,0,4198.38709677,0,4165.16129032,0,4196.12903226,0,4184.19354839,0,4174.83870968,0,4171.61290323,0,4240.96774194,0,0,0,?
2017-06-18 00:24:46.590518,4195.16129032,0,4166.77419355,0,4174.83870968,0,4162.58064516,0,4191.93548387,0,4206.77419355,0,4187.09677419,0,4189.35483871,0,4172.90322581,0,4193.5483871,0,4178.06451613,0,4210.32258065,0,4204.83870968,0,4228.70967742,0,0,0,?
2017-06-18 00:24:46.601493,4190.32258065,0,4195.48387097,0,4199.67741935,0,4157.09677419,0,4198.38709677,0,4204.19354839,0,4165.48387097,0,4177.09677419,0,4210.96774194,0,4162.25806452,0,4205.80645161,0,4186.12903226,0,4193.87096774,0,4203.5483871,0,0,0,?
2017-06-18 00:24:46.606521,4184.51612903,0,4201.29032258,0,4198.38709677,0,4174.51612903,0,4197.74193548,0,4175.16129032,0,4165.80645161,0,4181.61290323,0,4167.09677419,0,4202.58064516,0,4197.09677419,0,4179.67741935,0,4184.19354839,0,4185.48387097,0,0,0,?
2017-06-18 00:24:46.617523,4197.09677419,0,4211.29032258,0,4202.90322581,0,4162.25806452,0,4200.96774194,0,4192.25806452,0,4204.19354839,0,4204.19354839,0,4161.29032258,0,4170.96774194,0,4161.29032258,0,4198.70967742,0,4199.35483871,0,4201.61290323,0,0,0,?
2017-06-18 00:24:46.622487,4170.0,0,4165.16129032,0,4209.67741935,0,4174.83870968,0,4197.74193548,0,4169.03225806,0,4164.51612903,0,4210.0,0,4202.90322581,0,4191.93548387,0,4183.22580645,0,4164.83870968,0,4172.90322581,0,4230.0,0,0,0,?
2017-06-18 00:24:46.633536,4161.29032258,0,4164.51612903,0,4163.87096774,0,4133.22580645,0,4187.74193548,0,4201.29032258,0,4192.25806452,0,4207.09677419,0,4172.25806452,0,4196.12903226,0,4189.03225806,0,4169.67741935,0,4165.80645161,0,4227.09677419,0,0,0,?
2017-06-18 00:24:46.638544,4204.83870968,0,4208.06451613,0,4207.41935484,0,4152.58064516,0,4200.64516129,0,4195.48387097,0,4196.4516129,0,4165.80645161,0,4192.90322581,0,4190.0,0,4172.90322581,0,4166.4516129,0,4211.29032258,0,4213.87096774,0,0,0,?
2017-06-18 00:24:46.649458,4162.90322581,0,4162.90322581,0,4210.64516129,0,4145.48387097,0,4205.16129032,0,4163.87096774,0,4169.35483871,0,4179.03225806,0,4211.61290323,0,4185.80645161,0,4211.29032258,0,4167.74193548,0,4209.03225806,0,4219.03225806,0,0,0,?
2017-06-18 00:24:46.653581,4209.03225806,0,4168.38709677,0,4168.06451613,0,4165.48387097,0,4187.74193548,0,4208.70967742,0,4207.74193548,0,4169.35483871,0,4242.58064516,0,4186.77419355,0,4163.87096774,0,4173.5483871,0,4203.87096774,0,4221.29032258,0,0,0,?
2017-06-18 00:24:46.665494,4194.83870968,0,4209.03225806,0,4207.74193548,0,4173.22580645,0,4193.5483871,0,4199.67741935,0,4190.64516129,0,4206.77419355,0,4234.19354839,0,4188.38709677,0,4164.51612903,0,4168.06451613,0,4206.77419355,0,4201.93548387,0,0,0,?
2017-06-18 00:24:46.669465,4193.5483871,0,4161.29032258,0,4210.96774194,0,4133.22580645,0,4162.58064516,0,4210.64516129,0,4195.48387097,0,4170.0,0,4197.41935484,0,4189.03225806,0,4170.0,0,4176.4516129,0,4210.0,0,4195.16129032,0,0,0,?
2017-06-18 00:24:46.680568,4210.64516129,0,4175.80645161,0,4180.64516129,0,4138.06451613,0,4203.22580645,0,4206.4516129,0,4192.90322581,0,4181.29032258,0,4186.12903226,0,4184.51612903,0,4171.29032258,0,4183.87096774,0,4169.67741935,0,4216.77419355,0,0,0,?
2017-06-18 00:24:46.685533,4161.61290323,0,4171.93548387,0,4174.51612903,0,4185.80645161,0,4200.64516129,0,4195.80645161,0,4191.61290323,0,4170.64516129,0,4198.06451613,0,4190.0,0,4163.5483871,0,4176.4516129,0,4163.22580645,0,4230.64516129,0,0,0,?
2017-06-18 00:24:46.696462,4203.5483871,0,4207.09677419,0,4210.32258065,0,4165.80645161,0,4205.16129032,0,4198.38709677,0,4206.4516129,0,4166.4516129,0,4218.06451613,0,4200.64516129,0,4167.74193548,0,4179.03225806,0,4205.48387097,0,4221.93548387,0,0,0,?
2017-06-18 00:24:46.701569,4195.16129032,0,4207.09677419,0,4210.96774194,0,4151.93548387,0,4191.61290323,0,4206.4516129,0,4210.0,0,4166.12903226,0,4201.61290323,0,4180.64516129,0,4165.16129032,0,4168.70967742,0,4202.25806452,0,4202.58064516,0,0,0,?
2017-06-18 00:24:46.712474,4181.29032258,0,4205.48387097,0,4196.77419355,0,4158.06451613,0,4187.09677419,0,4203.87096774,0,4182.25806452,0,4199.67741935,0,4206.12903226,0,4195.48387097,0,4194.51612903,0,4180.64516129,0,4168.06451613,0,4194.51612903,0,0,0,?
2017-06-18 00:24:46.716457,4181.29032258,0,4192.90322581,0,4179.35483871,0,4150.64516129,0,4183.87096774,0,4184.83870968,0,4160.96774194,0,4190.32258065,0,4210.64516129,0,4194.19354839,0,4192.90322581,0,4171.29032258,0,4168.38709677,0,4195.80645161,0,0,0,?
2017-06-18 00:24:46.728482,4181.93548387,0,4193.22580645,0,4195.16129032,0,4148.38709677,0,4169.35483871,0,4170.64516129,0,4166.12903226,0,4202.25806452,0,4189.35483871,0,4162.25806452,0,4210.0,0,4204.51612903,0,4192.25806452,0,4193.5483871,0,0,0,?
2017-06-18 00:24:46.732458,4179.03225806,0,4203.22580645,0,4210.96774194,0,4172.58064516,0,4160.32258065,0,4168.06451613,0,4166.4516129,0,4205.80645161,0,4179.03225806,0,4208.06451613,0,4207.09677419,0,4208.38709677,0,4184.51612903,0,4194.83870968,0,0,0,?
2017-06-18 00:24:46.743520,4187.09677419,0,4202.25806452,0,4197.41935484,0,4170.0,0,4169.35483871,0,4171.29032258,0,4161.29032258,0,4208.06451613,0,4185.48387097,0,4207.41935484,0,4200.96774194,0,4198.38709677,0,4188.70967742,0,4195.80645161,0,0,0,?
2017-06-18 00:24:46.748457,4189.35483871,0,4197.41935484,0,4194.51612903,0,4134.19354839,0,4185.80645161,0,4185.16129032,0,4172.25806452,0,4168.70967742,0,4205.80645161,0,4180.0,0,4208.06451613,0,4209.03225806,0,4195.16129032,0,4195.16129032,0,0,0,?
2017-06-18 00:24:46.762493,4189.67741935,0,4199.03225806,0,4205.80645161,0,4141.93548387,0,4195.48387097,0,4205.16129032,0,4191.61290323,0,4168.38709677,0,4185.80645161,0,4194.51612903,0,4210.0,0,4167.09677419,0,4204.19354839,0,4196.12903226,0,0,0,?
2017-06-18 00:24:46.764479,4193.22580645,0,4202.25806452,0,4205.16129032,0,4147.74193548,0,4198.38709677,0,4210.96774194,0,4187.41935484,0,4210.96774194,0,4190.96774194,0,4189.03225806,0,4209.35483871,0,4171.61290323,0,4210.32258065,0,4195.48387097,0,0,0,?
2017-06-18 00:24:46.775509,4196.12903226,0,4205.16129032,0,4204.19354839,0,4148.70967742,0,4200.0,0,4205.48387097,0,4175.48387097,0,4172.58064516,0,4221.61290323,0,4185.80645161,0,4162.90322581,0,4170.64516129,0,4204.83870968,0,4196.4516129,0,0,0,?
2017-06-18 00:24:46.779480,4207.09677419,0,4165.80645161,0,4166.4516129,0,4149.03225806,0,4206.4516129,0,4206.4516129,0,4189.67741935,0,4188.70967742,0,4213.5483871,0,4185.48387097,0,4161.29032258,0,4164.83870968,0,4209.35483871,0,4203.87096774,0,0,0,?
2017-06-18 00:24:46.791469,4161.61290323,0,4167.41935484,0,4169.03225806,0,4168.06451613,0,4205.48387097,0,4202.58064516,0,4209.03225806,0,4186.12903226,0,4192.25806452,0,4170.32258065,0,4206.77419355,0,4163.22580645,0,4195.16129032,0,4204.83870968,0,0,0,?
2017-06-18 00:24:46.795547,4200.64516129,0,4204.83870968,0,4207.41935484,0,4172.58064516,0,4203.22580645,0,4200.64516129,0,4203.22580645,0,4187.09677419,0,4189.35483871,0,4209.67741935,0,4201.93548387,0,4207.41935484,0,4180.32258065,0,4197.74193548,0,0,0,?
2017-06-18 00:24:46.806474,4190.96774194,0,4204.19354839,0,4210.96774194,0,4137.41935484,0,4208.06451613,0,4161.93548387,0,4168.70967742,0,4205.48387097,0,4211.29032258,0,4179.67741935,0,4199.67741935,0,4161.61290323,0,4194.19354839,0,4196.77419355,0,0,0,?
2017-06-18 00:24:46.811497,4194.51612903,0,4209.03225806,0,4163.5483871,0,4129.67741935,0,4164.83870968,0,4166.4516129,0,4192.58064516,0,4211.29032258,0,4226.77419355,0,4194.83870968,0,4206.12903226,0,4180.32258065,0,4209.35483871,0,4198.70967742,0,0,0,?
2017-06-18 00:24:46.822580,4196.4516129,0,4200.32258065,0,4203.87096774,0,4164.51612903,0,4207.74193548,0,4198.70967742,0,4170.64516129,0,4190.96774194,0,4194.19354839,0,4178.70967742,0,4164.83870968,0,4178.06451613,0,4205.48387097,0,4194.51612903,0,0,0,?
2017-06-18 00:24:46.827495,4184.51612903,0,4197.09677419,0,4196.4516129,0,4178.70967742,0,4197.41935484,0,4202.90322581,0,4198.38709677,0,4176.4516129,0,4168.06451613,0,4209.03225806,0,4202.25806452,0,4200.64516129,0,4180.64516129,0,4191.29032258,0,0,0,?
2017-06-18 00:24:46.838485,4189.35483871,0,4202.90322581,0,4182.25806452,0,4169.35483871,0,4206.12903226,0,4182.90322581,0,4201.29032258,0,4170.32258065,0,4190.32258065,0,4202.25806452,0,4177.41935484,0,4176.77419355,0,4179.35483871,0,4195.80645161,0,0,0,?
2017-06-18 00:24:46.843460,4196.12903226,0,4200.64516129,0,4168.06451613,0,4145.80645161,0,4211.29032258,0,4178.70967742,0,4206.12903226,0,4164.51612903,0,4177.41935484,0,4198.06451613,0,4165.16129032,0,4178.06451613,0,4187.74193548,0,4183.5483871,0,0,0,?
2017-06-18 00:24:46.854501,4182.90322581,0,4197.09677419,0,4170.0,0,4169.67741935,0,4207.74193548,0,4206.4516129,0,4206.77419355,0,4207.09677419,0,4189.35483871,0,4194.83870968,0,4165.80645161,0,4191.93548387,0,4180.96774194,0,4161.29032258,0,0,0,?
2017-06-18 00:24:46.858465,4181.29032258,0,4201.61290323,0,4173.22580645,0,4144.51612903,0,4207.41935484,0,4204.51612903,0,4197.74193548,0,4200.32258065,0,4174.19354839,0,4197.41935484,0,4183.87096774,0,4197.74193548,0,4189.03225806,0,4174.51612903,0,0,0,?
2017-06-18 00:24:46.869494,4189.03225806,0,4206.4516129,0,4181.29032258,0,4171.61290323,0,4200.64516129,0,4204.19354839,0,4186.4516129,0,4211.29032258,0,4210.32258065,0,4202.58064516,0,4199.67741935,0,4195.48387097,0,4187.41935484,0,4199.03225806,0,0,0,?
2017-06-18 00:24:46.874472,4197.74193548,0,4206.4516129,0,4198.70967742,0,4164.19354839,0,4192.90322581,0,4197.41935484,0,4204.83870968,0,4176.77419355,0,4178.06451613,0,4210.32258065,0,4197.74193548,0,4201.61290323,0,4194.83870968,0,4190.64516129,0,0,0,?
2017-06-18 00:24:46.885491,4203.22580645,0,4200.64516129,0,4196.77419355,0,4136.77419355,0,4194.19354839,0,4201.93548387,0,4168.70967742,0,4170.0,0,4175.48387097,0,4208.70967742,0,4199.35483871,0,4210.32258065,0,4210.96774194,0,4184.83870968,0,0,0,?
2017-06-18 00:24:46.890582,4200.96774194,0,4204.19354839,0,4193.87096774,0,4174.83870968,0,4201.29032258,0,4206.12903226,0,4187.74193548,0,4209.03225806,0,4200.64516129,0,4202.25806452,0,4203.22580645,0,4200.96774194,0,4195.16129032,0,4192.25806452,0,0,0,?
2017-06-18 00:24:46.901558,4192.90322581,0,4161.61290323,0,4197.41935484,0,4133.5483871,0,4206.12903226,0,4194.83870968,0,4157.09677419,0,4197.41935484,0,4174.83870968,0,4200.96774194,0,4184.51612903,0,4181.93548387,0,4181.93548387,0,4176.12903226,0,0,0,?
2017-06-18 00:24:46.906517,4160.32258065,0,4188.06451613,0,4178.38709677,0,4134.51612903,0,4194.19354839,0,4176.77419355,0,4145.48387097,0,4174.19354839,0,4199.67741935,0,4184.51612903,0,4157.74193548,0,4163.5483871,0,4166.77419355,0,4200.32258065,0,0,0,?
2017-06-18 00:24:46.917486,4146.77419355,0,4165.48387097,0,4159.35483871,0,4171.93548387,0,4182.25806452,0,4166.4516129,0,4129.67741935,0,4158.06451613,0,4206.77419355,0,4164.83870968,0,4154.51612903,0,4156.77419355,0,4159.03225806,0,4199.35483871,0,0,0,?
2017-06-18 00:24:46.921462,4177.09677419,0,4186.4516129,0,4165.16129032,0,4127.09677419,0,4199.03225806,0,4187.41935484,0,4139.03225806,0,4160.96774194,0,4200.0,0,4175.16129032,0,4167.09677419,0,4173.22580645,0,4170.96774194,0,4161.93548387,0,0,0,?
2017-06-18 00:24:46.932521,4182.90322581,0,4205.48387097,0,4172.25806452,0,4140.0,0,4210.96774194,0,4211.29032258,0,4184.19354839,0,4178.38709677,0,4203.5483871,0,4196.77419355,0,4172.25806452,0,4177.74193548,0,4169.35483871,0,4209.03225806,0,0,0,?
2017-06-18 00:24:46.937447,4171.29032258,0,4200.64516129,0,4171.29032258,0,4135.80645161,0,4201.29032258,0,4164.83870968,0,4208.06451613,0,4203.22580645,0,4181.29032258,0,4201.29032258,0,4170.0,0,4168.06451613,0,4175.48387097,0,4202.25806452,0,0,0,?
2017-06-18 00:24:46.948477,4183.22580645,0,4209.67741935,0,4176.4516129,0,4162.58064516,0,4205.16129032,0,4163.5483871,0,4202.25806452,0,4166.4516129,0,4201.29032258,0,4199.67741935,0,4179.35483871,0,4185.48387097,0,4187.74193548,0,4167.41935484,0,0,0,?
2017-06-18 00:24:46.953504,4205.80645161,0,4170.64516129,0,4189.03225806,0,4136.4516129,0,4164.83870968,0,4162.25806452,0,4206.77419355,0,4169.35483871,0,4218.38709677,0,4164.51612903,0,4210.0,0,4168.38709677,0,4209.35483871,0,4195.16129032,0,0,0,?
2017-06-18 00:24:46.967497,4210.96774194,0,4162.90322581,0,4198.70967742,0,4175.48387097,0,4207.41935484,0,4211.29032258,0,4205.80645161,0,4175.16129032,0,4205.48387097,0,4174.83870968,0,4178.06451613,0,4168.06451613,0,4171.61290323,0,4204.51612903,0,0,0,?
2017-06-18 00:24:46.969472,4195.48387097,0,4162.25806452,0,4202.90322581,0,4147.09677419,0,4206.12903226,0,4209.03225806,0,4180.0,0,4200.64516129,0,4209.03225806,0,4204.83870968,0,4198.70967742,0,4192.58064516,0,4189.35483871,0,4184.51612903,0,0,0,?
2017-06-18 00:24:46.980474,4194.83870968,0,4210.0,0,4189.35483871,0,4139.35483871,0,4164.51612903,0,4200.96774194,0,4154.51612903,0,4171.61290323,0,4162.90322581,0,4189.67741935,0,4168.06451613,0,4183.87096774,0,4177.09677419,0,4169.67741935,0,0,0,?
2017-06-18 00:24:46.984451,4204.51612903,0,4200.96774194,0,4175.48387097,0,4164.19354839,0,4166.4516129,0,4208.70967742,0,4156.77419355,0,4191.61290323,0,4199.03225806,0,4200.64516129,0,4184.51612903,0,4193.22580645,0,4198.38709677,0,4175.16129032,0,0,0,?
2017-06-18 00:24:46.995482,4162.90322581,0,4168.38709677,0,4192.25806452,0,4133.87096774,0,4164.19354839,0,4174.51612903,0,4183.5483871,0,4210.64516129,0,4198.38709677,0,4166.4516129,0,4163.5483871,0,4207.74193548,0,4206.77419355,0,4194.19354839,0,0,0,?
2017-06-18 00:24:47.000467,4166.4516129,0,4186.77419355,0,4163.87096774,0,4130.64516129,0,4163.87096774,0,4164.19354839,0,4199.35483871,0,4206.4516129,0,4195.16129032,0,4171.61290323,0,4161.61290323,0,4209.35483871,0,4203.5483871,0,4205.48387097,0,0,0,?
2017-06-18 00:24:47.011651,4199.67741935,0,4169.67741935,0,4196.77419355,0,4151.93548387,0,4166.12903226,0,4202.90322581,0,4182.90322581,0,4210.32258065,0,4201.93548387,0,4201.61290323,0,4184.51612903,0,4186.77419355,0,4185.80645161,0,4186.77419355,0,0,0,?
2017-06-18 00:24:47.016636,4178.06451613,0,4194.19354839,0,4163.87096774,0,4163.22580645,0,4209.67741935,0,4209.03225806,0,4181.29032258,0,4207.41935484,0,4184.19354839,0,4170.32258065,0,4155.80645161,0,4162.90322581,0,4168.06451613,0,4206.4516129,0,0,0,?
2017-06-18 00:24:47.027505,4171.61290323,0,4195.48387097,0,4164.51612903,0,4172.25806452,0,4203.87096774,0,4203.5483871,0,4207.41935484,0,4203.22580645,0,4179.35483871,0,4170.64516129,0,4149.35483871,0,4166.4516129,0,4151.61290323,0,4194.19354839,0,0,0,?
2017-06-18 00:24:47.032483,4182.25806452,0,4205.80645161,0,4175.48387097,0,4136.77419355,0,4174.19354839,0,4209.03225806,0,4164.51612903,0,4168.06451613,0,4195.16129032,0,4182.58064516,0,4164.51612903,0,4174.51612903,0,4151.29032258,0,4201.93548387,0,0,0,?
2017-06-18 00:24:47.043493,4192.90322581,0,4206.4516129,0,4165.48387097,0,4174.51612903,0,4190.96774194,0,4199.03225806,0,4208.06451613,0,4170.0,0,4184.51612903,0,4171.93548387,0,4172.90322581,0,4165.16129032,0,4172.58064516,0,4207.74193548,0,0,0,?
2017-06-18 00:24:47.047456,4188.06451613,0,4200.96774194,0,4163.87096774,0,4142.25806452,0,4170.0,0,4202.90322581,0,4166.77419355,0,4164.83870968,0,4175.16129032,0,4182.90322581,0,4168.70967742,0,4180.0,0,4173.5483871,0,4206.12903226,0,0,0,?
2017-06-18 00:24:47.058494,4195.48387097,0,4199.35483871,0,4180.96774194,0,4120.64516129,0,4205.48387097,0,4210.32258065,0,4164.83870968,0,4165.80645161,0,4176.4516129,0,4210.0,0,4172.58064516,0,4203.87096774,0,4175.16129032,0,4209.67741935,0,0,0,?
2017-06-18 00:24:47.063474,4169.67741935,0,4174.51612903,0,4200.64516129,0,4140.96774194,0,4178.06451613,0,4166.4516129,0,4201.61290323,0,4166.77419355,0,4195.48387097,0,4206.12903226,0,4187.41935484,0,4200.0,0,4186.12903226,0,4174.83870968,0,0,0,?
2017-06-18 00:24:47.074478,4172.90322581,0,4195.80645161,0,4161.61290323,0,4130.0,0,4193.5483871,0,4199.35483871,0,4207.74193548,0,4174.51612903,0,4228.38709677,0,4200.32258065,0,4201.61290323,0,4194.19354839,0,4186.77419355,0,4192.25806452,0,0,0,?
2017-06-18 00:24:47.079515,4204.51612903,0,4168.06451613,0,4197.74193548,0,4148.06451613,0,4179.03225806,0,4170.64516129,0,4198.70967742,0,4171.93548387,0,4205.16129032,0,4210.32258065,0,4201.93548387,0,4193.87096774,0,4190.64516129,0,4177.74193548,0,0,0,?
2017-06-18 00:24:47.090664,4187.74193548,0,4192.90322581,0,4170.64516129,0,4133.22580645,0,4178.06451613,0,4202.25806452,0,4178.38709677,0,4200.64516129,0,4168.06451613,0,4204.51612903,0,4187.74193548,0,4184.83870968,0,4177.74193548,0,4195.80645161,0,0,0,?
2017-06-18 00:24:47.095470,4200.0,0,4167.74193548,0,4185.48387097,0,4136.12903226,0,4194.51612903,0,4179.35483871,0,4190.0,0,4210.96774194,0,4201.29032258,0,4204.51612903,0,4181.93548387,0,4189.67741935,0,4180.64516129,0,4203.5483871,0,0,0,?
2017-06-18 00:24:47.106555,4162.90322581,0,4185.16129032,0,4166.77419355,0,4135.16129032,0,4193.87096774,0,4181.61290323,0,4170.64516129,0,4200.32258065,0,4231.93548387,0,4180.64516129,0,4197.74193548,0,4165.80645161,0,4208.06451613,0,4177.74193548,0,0,0,?
2017-06-18 00:24:47.111525,4204.51612903,0,4166.12903226,0,4199.03225806,0,4153.5483871,0,4190.64516129,0,4171.93548387,0,4175.80645161,0,4196.77419355,0,4205.16129032,0,4183.87096774,0,4166.4516129,0,4170.32258065,0,4165.16129032,0,4172.58064516,0,0,0,?
2017-06-18 00:24:47.122558,4205.48387097,0,4193.22580645,0,4157.09677419,0,4182.58064516,0,4186.77419355,0,4171.93548387,0,4200.64516129,0,4202.90322581,0,4180.64516129,0,4204.19354839,0,4162.58064516,0,4202.90322581,0,4162.90322581,0,4204.83870968,0,0,0,?
2017-06-18 00:24:47.126483,4161.61290323,0,4199.35483871,0,4163.87096774,0,4162.25806452,0,4175.16129032,0,4170.0,0,4199.35483871,0,4198.06451613,0,4185.48387097,0,4194.51612903,0,4197.74193548,0,4197.74193548,0,4205.48387097,0,4204.83870968,0,0,0,?
2017-06-18 00:24:47.137515,4175.16129032,0,4184.19354839,0,4195.48387097,0,4099.03225806,0,4170.0,0,4176.77419355,0,4172.58064516,0,4180.32258065,0,4208.38709677,0,4163.22580645,0,4204.19354839,0,4210.64516129,0,4166.4516129,0,4169.03225806,0,0,0,?
2017-06-18 00:24:47.142529,4181.29032258,0,4187.09677419,0,4190.64516129,0,4125.80645161,0,4166.4516129,0,4180.64516129,0,4171.93548387,0,4184.19354839,0,4224.19354839,0,4161.93548387,0,4208.06451613,0,4164.51612903,0,4173.22580645,0,4167.41935484,0,0,0,?
2017-06-18 00:24:47.153524,4173.5483871,0,4209.03225806,0,4170.0,0,4148.06451613,0,4166.4516129,0,4165.16129032,0,4197.74193548,0,4210.0,0,4206.12903226,0,4199.35483871,0,4197.74193548,0,4201.29032258,0,4196.12903226,0,4210.64516129,0,0,0,?
2017-06-18 00:24:47.158551,4171.61290323,0,4200.32258065,0,4164.19354839,0,4193.22580645,0,4169.03225806,0,4200.32258065,0,4190.96774194,0,4203.22580645,0,4191.61290323,0,4206.12903226,0,4194.83870968,0,4194.19354839,0,4195.16129032,0,4164.19354839,0,0,0,?
2017-06-18 00:24:47.171469,4161.93548387,0,4209.35483871,0,4176.12903226,0,4165.16129032,0,4167.41935484,0,4207.74193548,0,4203.22580645,0,4167.74193548,0,4201.29032258,0,4209.35483871,0,4195.16129032,0,4201.29032258,0,4198.38709677,0,4208.06451613,0,0,0,?
2017-06-18 00:24:47.174476,4163.87096774,0,4175.80645161,0,4197.41935484,0,4158.70967742,0,4180.64516129,0,4186.4516129,0,4210.32258065,0,4172.90322581,0,4198.38709677,0,4203.87096774,0,4193.87096774,0,4202.58064516,0,4197.09677419,0,4210.96774194,0,0,0,?
2017-06-18 00:24:47.184468,4179.03225806,0,4191.93548387,0,4208.38709677,0,4150.32258065,0,4192.58064516,0,4200.64516129,0,4203.5483871,0,4209.67741935,0,4193.22580645,0,4204.19354839,0,4197.74193548,0,4198.70967742,0,4200.96774194,0,4185.48387097,0,0,0,?
2017-06-18 00:24:47.189583,4165.80645161,0,4176.77419355,0,4195.80645161,0,4173.5483871,0,4172.90322581,0,4167.41935484,0,4204.83870968,0,4161.29032258,0,4204.51612903,0,4209.03225806,0,4202.58064516,0,4205.16129032,0,4186.12903226,0,4183.22580645,0,0,0,?
2017-06-18 00:24:47.200463,4194.19354839,0,4200.96774194,0,4169.67741935,0,4150.0,0,4211.29032258,0,4194.19354839,0,4162.90322581,0,4174.83870968,0,4194.19354839,0,4207.41935484,0,4199.67741935,0,4202.25806452,0,4184.51612903,0,4207.41935484,0,0,0,?
2017-06-18 00:24:47.205480,4192.58064516,0,4206.77419355,0,4170.0,0,4171.61290323,0,4186.4516129,0,4164.19354839,0,4192.58064516,0,4163.87096774,0,4167.41935484,0,4192.25806452,0,4183.87096774,0,4177.74193548,0,4176.12903226,0,4207.09677419,0,0,0,?
2017-06-18 00:24:47.216500,4206.12903226,0,4164.19354839,0,4197.74193548,0,4144.51612903,0,4193.87096774,0,4184.83870968,0,4176.12903226,0,4204.19354839,0,4174.51612903,0,4174.51612903,0,4170.96774194,0,4162.90322581,0,4168.06451613,0,4166.12903226,0,0,0,?
2017-06-18 00:24:47.221451,4167.41935484,0,4210.96774194,0,4205.80645161,0,4151.61290323,0,4174.83870968,0,4188.06451613,0,4207.41935484,0,4210.64516129,0,4182.90322581,0,4176.77419355,0,4184.19354839,0,4177.41935484,0,4188.06451613,0,4161.61290323,0,0,0,?
2017-06-18 00:24:47.235584,4206.12903226,0,4209.03225806,0,4175.48387097,0,4176.77419355,0,4163.87096774,0,4175.80645161,0,4172.90322581,0,4198.06451613,0,4163.22580645,0,4180.64516129,0,4200.64516129,0,4194.19354839,0,4190.64516129,0,4201.93548387,0,0,0,?
2017-06-18 00:24:47.237514,4198.38709677,0,4195.80645161,0,4165.16129032,0,4148.70967742,0,4204.19354839,0,4200.96774194,0,4192.25806452,0,4171.29032258,0,4201.29032258,0,4169.03225806,0,4199.35483871,0,4176.12903226,0,4186.4516129,0,4195.16129032,0,0,0,?
